# E (eV)   ldos(E)   pdos(E)   
 -10.000  0.000E+00  0.000E+00
  -9.960  0.000E+00  0.000E+00
  -9.920  0.000E+00  0.000E+00
  -9.880  0.000E+00  0.000E+00
  -9.840  0.000E+00  0.000E+00
  -9.800  0.000E+00  0.000E+00
  -9.760  0.000E+00  0.000E+00
  -9.720  0.000E+00  0.000E+00
  -9.680  0.000E+00  0.000E+00
  -9.640  0.000E+00  0.000E+00
  -9.600  0.000E+00  0.000E+00
  -9.560  0.000E+00  0.000E+00
  -9.520  0.000E+00  0.000E+00
  -9.480  0.000E+00  0.000E+00
  -9.440  0.000E+00  0.000E+00
  -9.400  0.000E+00  0.000E+00
  -9.360  0.000E+00  0.000E+00
  -9.320  0.000E+00  0.000E+00
  -9.280  0.000E+00  0.000E+00
  -9.240  0.000E+00  0.000E+00
  -9.200  0.000E+00  0.000E+00
  -9.160  0.000E+00  0.000E+00
  -9.120  0.000E+00  0.000E+00
  -9.080  0.000E+00  0.000E+00
  -9.040  0.000E+00  0.000E+00
  -9.000  0.000E+00  0.000E+00
  -8.960  0.000E+00  0.000E+00
  -8.920  0.000E+00  0.000E+00
  -8.880  0.000E+00  0.000E+00
  -8.840  0.000E+00  0.000E+00
  -8.800  0.000E+00  0.000E+00
  -8.760  0.000E+00  0.000E+00
  -8.720  0.000E+00  0.000E+00
  -8.680  0.000E+00  0.000E+00
  -8.640  0.000E+00  0.000E+00
  -8.600  0.000E+00  0.000E+00
  -8.560  0.000E+00  0.000E+00
  -8.520  0.000E+00  0.000E+00
  -8.480  0.000E+00  0.000E+00
  -8.440  0.000E+00  0.000E+00
  -8.400  0.000E+00  0.000E+00
  -8.360  0.000E+00  0.000E+00
  -8.320  0.000E+00  0.000E+00
  -8.280  0.000E+00  0.000E+00
  -8.240  0.000E+00  0.000E+00
  -8.200  0.000E+00  0.000E+00
  -8.160  0.000E+00  0.000E+00
  -8.120  0.000E+00  0.000E+00
  -8.080  0.000E+00  0.000E+00
  -8.040  0.000E+00  0.000E+00
  -8.000  0.000E+00  0.000E+00
  -7.960  0.000E+00  0.000E+00
  -7.920  0.000E+00  0.000E+00
  -7.880  0.000E+00  0.000E+00
  -7.840  0.000E+00  0.000E+00
  -7.800  0.000E+00  0.000E+00
  -7.760  0.000E+00  0.000E+00
  -7.720  0.102E-17  0.102E-17
  -7.680  0.767E-13  0.767E-13
  -7.640  0.849E-09  0.849E-09
  -7.600  0.138E-05  0.138E-05
  -7.560  0.327E-03  0.327E-03
  -7.520  0.116E-01  0.116E-01
  -7.480  0.726E-01  0.726E-01
  -7.440  0.203E+00  0.203E+00
  -7.400  0.330E+00  0.330E+00
  -7.360  0.311E+00  0.311E+00
  -7.320  0.141E+00  0.141E+00
  -7.280  0.201E+00  0.201E+00
  -7.240  0.463E+00  0.463E+00
  -7.200  0.560E+00  0.560E+00
  -7.160  0.177E+00  0.177E+00
  -7.120  0.555E-01  0.555E-01
  -7.080  0.376E+00  0.376E+00
  -7.040  0.756E+00  0.756E+00
  -7.000  0.648E+00  0.648E+00
  -6.960  0.429E+00  0.429E+00
  -6.920  0.240E+00  0.240E+00
  -6.880  0.211E+00  0.211E+00
  -6.840  0.244E+00  0.244E+00
  -6.800  0.252E+00  0.252E+00
  -6.760  0.224E+00  0.224E+00
  -6.720  0.110E+00  0.110E+00
  -6.680  0.235E+00  0.235E+00
  -6.640  0.393E+00  0.393E+00
  -6.600  0.210E+00  0.210E+00
  -6.560  0.254E+00  0.254E+00
  -6.520  0.433E+00  0.433E+00
  -6.480  0.430E+00  0.430E+00
  -6.440  0.509E+00  0.509E+00
  -6.400  0.209E+00  0.209E+00
  -6.360  0.329E-01  0.329E-01
  -6.320  0.185E-01  0.185E-01
  -6.280  0.155E-01  0.155E-01
  -6.240  0.134E-01  0.134E-01
  -6.200  0.119E-01  0.119E-01
  -6.160  0.144E-01  0.144E-01
  -6.120  0.352E-02  0.352E-02
  -6.080  0.201E-02  0.201E-02
  -6.040  0.153E-01  0.153E-01
  -6.000  0.201E-01  0.201E-01
  -5.960  0.121E-01  0.121E-01
  -5.920  0.371E-01  0.371E-01
  -5.880  0.246E-01  0.246E-01
  -5.840  0.249E-02  0.249E-02
  -5.800  0.713E-04  0.713E-04
  -5.760  0.117E-02  0.117E-02
  -5.720  0.979E-02  0.979E-02
  -5.680  0.184E-01  0.184E-01
  -5.640  0.239E-01  0.239E-01
  -5.600  0.539E-01  0.539E-01
  -5.560  0.391E-01  0.391E-01
  -5.520  0.393E-01  0.393E-01
  -5.480  0.161E-01  0.161E-01
  -5.440  0.187E-01  0.187E-01
  -5.400  0.160E-01  0.160E-01
  -5.360  0.106E-01  0.106E-01
  -5.320  0.893E-02  0.893E-02
  -5.280  0.123E-01  0.123E-01
  -5.240  0.336E-01  0.336E-01
  -5.200  0.576E-01  0.576E-01
  -5.160  0.504E-01  0.504E-01
  -5.120  0.238E-01  0.238E-01
  -5.080  0.256E-01  0.256E-01
  -5.040  0.223E-01  0.223E-01
  -5.000  0.347E-01  0.347E-01
  -4.960  0.460E-01  0.460E-01
  -4.920  0.612E-01  0.612E-01
  -4.880  0.397E-01  0.397E-01
  -4.840  0.467E-01  0.467E-01
  -4.800  0.465E-01  0.465E-01
  -4.760  0.157E-01  0.157E-01
  -4.720  0.649E-02  0.649E-02
  -4.680  0.145E-01  0.145E-01
  -4.640  0.228E-01  0.228E-01
  -4.600  0.357E-01  0.357E-01
  -4.560  0.173E-01  0.173E-01
  -4.520  0.210E-01  0.210E-01
  -4.480  0.147E-01  0.147E-01
  -4.440  0.348E-02  0.348E-02
  -4.400  0.131E-01  0.131E-01
  -4.360  0.530E-01  0.530E-01
  -4.320  0.339E-01  0.339E-01
  -4.280  0.458E-02  0.458E-02
  -4.240  0.321E-02  0.321E-02
  -4.200  0.477E-02  0.477E-02
  -4.160  0.284E-02  0.284E-02
  -4.120  0.167E-02  0.167E-02
  -4.080  0.270E-02  0.270E-02
  -4.040  0.163E-02  0.163E-02
  -4.000  0.111E-01  0.111E-01
  -3.960  0.227E-01  0.227E-01
  -3.920  0.740E-02  0.740E-02
  -3.880  0.489E-03  0.489E-03
  -3.840  0.233E-02  0.233E-02
  -3.800  0.142E-01  0.142E-01
  -3.760  0.166E-01  0.166E-01
  -3.720  0.361E-02  0.361E-02
  -3.680  0.104E-02  0.104E-02
  -3.640  0.519E-03  0.519E-03
  -3.600  0.335E-03  0.335E-03
  -3.560  0.665E-03  0.665E-03
  -3.520  0.451E-03  0.451E-03
  -3.480  0.110E-02  0.110E-02
  -3.440  0.528E-02  0.528E-02
  -3.400  0.451E-02  0.451E-02
  -3.360  0.846E-03  0.846E-03
  -3.320  0.631E-02  0.631E-02
  -3.280  0.296E-01  0.296E-01
  -3.240  0.629E-01  0.629E-01
  -3.200  0.107E+00  0.107E+00
  -3.160  0.117E+00  0.117E+00
  -3.120  0.948E-01  0.948E-01
  -3.080  0.495E-01  0.495E-01
  -3.040  0.391E-01  0.391E-01
  -3.000  0.684E-01  0.684E-01
  -2.960  0.946E-01  0.946E-01
  -2.920  0.799E-01  0.799E-01
  -2.880  0.577E-01  0.577E-01
  -2.840  0.315E-01  0.315E-01
  -2.800  0.157E-01  0.157E-01
  -2.760  0.574E-02  0.574E-02
  -2.720  0.115E-02  0.115E-02
  -2.680  0.827E-04  0.827E-04
  -2.640  0.144E-05  0.144E-05
  -2.600  0.495E-08  0.495E-08
  -2.560  0.296E-11  0.296E-11
  -2.520  0.287E-15  0.287E-15
  -2.480  0.423E-20  0.423E-20
  -2.440  0.000E+00  0.000E+00
  -2.400  0.201E-19  0.201E-19
  -2.360  0.163E-14  0.163E-14
  -2.320  0.193E-10  0.193E-10
  -2.280  0.336E-07  0.336E-07
  -2.240  0.865E-05  0.865E-05
  -2.200  0.349E-03  0.349E-03
  -2.160  0.289E-02  0.289E-02
  -2.120  0.833E-02  0.833E-02
  -2.080  0.103E-01  0.103E-01
  -2.040  0.668E-02  0.668E-02
  -2.000  0.639E-02  0.639E-02
  -1.960  0.731E-02  0.731E-02
  -1.920  0.575E-02  0.575E-02
  -1.880  0.699E-02  0.699E-02
  -1.840  0.597E-02  0.597E-02
  -1.800  0.927E-02  0.927E-02
  -1.760  0.146E-01  0.146E-01
  -1.720  0.212E-01  0.212E-01
  -1.680  0.198E-01  0.198E-01
  -1.640  0.534E-02  0.534E-02
  -1.600  0.186E-02  0.186E-02
  -1.560  0.475E-03  0.475E-03
  -1.520  0.329E-04  0.329E-04
  -1.480  0.489E-04  0.489E-04
  -1.440  0.110E-03  0.110E-03
  -1.400  0.959E-04  0.959E-04
  -1.360  0.163E-04  0.163E-04
  -1.320  0.424E-06  0.424E-06
  -1.280  0.162E-08  0.162E-08
  -1.240  0.910E-12  0.910E-12
  -1.200  0.120E-15  0.120E-15
  -1.160  0.109E-18  0.109E-18
  -1.120  0.369E-22  0.369E-22
  -1.080  0.185E-26  0.185E-26
  -1.040  0.000E+00  0.000E+00
  -1.000  0.000E+00  0.000E+00
  -0.960  0.000E+00  0.000E+00
  -0.920  0.000E+00  0.000E+00
  -0.880  0.000E+00  0.000E+00
  -0.840  0.000E+00  0.000E+00
  -0.800  0.000E+00  0.000E+00
  -0.760  0.000E+00  0.000E+00
  -0.720  0.000E+00  0.000E+00
  -0.680  0.000E+00  0.000E+00
  -0.640  0.000E+00  0.000E+00
  -0.600  0.000E+00  0.000E+00
  -0.560  0.000E+00  0.000E+00
  -0.520  0.000E+00  0.000E+00
  -0.480  0.000E+00  0.000E+00
  -0.440  0.000E+00  0.000E+00
  -0.400  0.000E+00  0.000E+00
  -0.360  0.000E+00  0.000E+00
  -0.320  0.000E+00  0.000E+00
  -0.280  0.000E+00  0.000E+00
  -0.240  0.000E+00  0.000E+00
  -0.200  0.000E+00  0.000E+00
  -0.160  0.000E+00  0.000E+00
  -0.120  0.000E+00  0.000E+00
  -0.080  0.000E+00  0.000E+00
  -0.040  0.000E+00  0.000E+00
   0.000  0.000E+00  0.000E+00
   0.040  0.000E+00  0.000E+00
   0.080  0.000E+00  0.000E+00
   0.120  0.000E+00  0.000E+00
   0.160  0.000E+00  0.000E+00
   0.200  0.000E+00  0.000E+00
   0.240  0.000E+00  0.000E+00
   0.280  0.000E+00  0.000E+00
   0.320  0.000E+00  0.000E+00
   0.360  0.000E+00  0.000E+00
   0.400  0.000E+00  0.000E+00
   0.440  0.000E+00  0.000E+00
   0.480  0.000E+00  0.000E+00
   0.520  0.000E+00  0.000E+00
   0.560  0.000E+00  0.000E+00
   0.600  0.000E+00  0.000E+00
   0.640  0.000E+00  0.000E+00
   0.680  0.000E+00  0.000E+00
   0.720  0.000E+00  0.000E+00
   0.760  0.000E+00  0.000E+00
   0.800  0.000E+00  0.000E+00
   0.840  0.153E-13  0.153E-13
   0.880  0.274E-09  0.274E-09
   0.920  0.718E-06  0.718E-06
   0.960  0.276E-03  0.276E-03
   1.000  0.156E-01  0.156E-01
   1.040  0.131E+00  0.131E+00
   1.080  0.236E+00  0.236E+00
   1.120  0.359E+00  0.359E+00
   1.160  0.314E+00  0.314E+00
   1.200  0.643E+00  0.643E+00
   1.240  0.487E+00  0.487E+00
   1.280  0.144E+00  0.144E+00
   1.320  0.632E+00  0.632E+00
   1.360  0.807E+00  0.807E+00
   1.400  0.176E+00  0.176E+00
   1.440  0.115E-01  0.115E-01
   1.480  0.114E+00  0.114E+00
   1.520  0.377E+00  0.377E+00
   1.560  0.516E+00  0.516E+00
   1.600  0.986E+00  0.986E+00
   1.640  0.831E+00  0.831E+00
   1.680  0.378E+00  0.378E+00
   1.720  0.834E-01  0.834E-01
   1.760  0.137E+00  0.137E+00
   1.800  0.607E+00  0.607E+00
   1.840  0.739E+00  0.739E+00
   1.880  0.737E+00  0.737E+00
   1.920  0.222E+00  0.222E+00
   1.960  0.276E+00  0.276E+00
   2.000  0.108E+01  0.108E+01
   2.040  0.151E+01  0.151E+01
   2.080  0.133E+01  0.133E+01
   2.120  0.106E+01  0.106E+01
   2.160  0.767E+00  0.767E+00
   2.200  0.627E+00  0.627E+00
   2.240  0.795E+00  0.795E+00
   2.280  0.748E+00  0.748E+00
   2.320  0.301E+00  0.301E+00
   2.360  0.405E-01  0.405E-01
   2.400  0.131E-02  0.131E-02
   2.440  0.163E-01  0.163E-01
   2.480  0.281E+00  0.281E+00
   2.520  0.977E+00  0.977E+00
   2.560  0.110E+01  0.110E+01
   2.600  0.564E+00  0.564E+00
   2.640  0.148E+00  0.148E+00
   2.680  0.119E-01  0.119E-01
   2.720  0.371E-02  0.371E-02
   2.760  0.619E-02  0.619E-02
   2.800  0.963E-01  0.963E-01
   2.840  0.277E+00  0.277E+00
   2.880  0.171E+00  0.171E+00
   2.920  0.180E+00  0.180E+00
   2.960  0.144E+00  0.144E+00
   3.000  0.115E+00  0.115E+00
   3.040  0.131E+00  0.131E+00
   3.080  0.259E+00  0.259E+00
   3.120  0.191E+00  0.191E+00
   3.160  0.229E+00  0.229E+00
   3.200  0.203E+00  0.203E+00
   3.240  0.147E+00  0.147E+00
   3.280  0.178E+00  0.178E+00
   3.320  0.139E+00  0.139E+00
   3.360  0.111E+00  0.111E+00
   3.400  0.318E-01  0.318E-01
   3.440  0.277E-01  0.277E-01
   3.480  0.664E-01  0.664E-01
   3.520  0.560E-01  0.560E-01
   3.560  0.389E-01  0.389E-01
   3.600  0.397E-01  0.397E-01
   3.640  0.454E-01  0.454E-01
   3.680  0.856E-01  0.856E-01
   3.720  0.123E+00  0.123E+00
   3.760  0.378E-01  0.378E-01
   3.800  0.244E-02  0.244E-02
   3.840  0.800E-03  0.800E-03
   3.880  0.612E-02  0.612E-02
   3.920  0.121E-01  0.121E-01
   3.960  0.107E-01  0.107E-01
   4.000  0.241E-01  0.241E-01
   4.040  0.117E-01  0.117E-01
   4.080  0.235E-02  0.235E-02
   4.120  0.177E-01  0.177E-01
   4.160  0.770E-01  0.770E-01
   4.200  0.530E-01  0.530E-01
   4.240  0.544E-02  0.544E-02
   4.280  0.908E-04  0.908E-04
   4.320  0.779E-04  0.779E-04
   4.360  0.228E-03  0.228E-03
   4.400  0.493E-02  0.493E-02
   4.440  0.314E-01  0.314E-01
   4.480  0.296E-01  0.296E-01
   4.520  0.410E-02  0.410E-02
   4.560  0.427E-03  0.427E-03
   4.600  0.369E-02  0.369E-02
   4.640  0.145E-01  0.145E-01
   4.680  0.395E-01  0.395E-01
   4.720  0.222E-01  0.222E-01
   4.760  0.187E-02  0.187E-02
   4.800  0.231E-04  0.231E-04
   4.840  0.419E-07  0.419E-07
